#time (h), cphase (deg), error (deg)
0.087796 -80.521900 3.027296
0.090875 -73.460000 2.926292
0.093954 -75.425800 2.898805
0.097033 -72.208600 2.862257
0.100112 -81.221800 2.871699
0.103192 -80.956000 2.794765
0.106271 -76.207500 2.908930
0.109350 -75.364100 2.672670
0.112429 -80.049900 2.793216
0.115508 -74.594600 2.886700
0.118587 -77.586100 3.027390
0.121667 -79.943100 2.969087
0.124746 -76.326500 2.918522
0.127825 -75.892300 2.863801
0.130904 -78.220100 2.917366
0.133983 -75.634100 2.859278
0.137063 -75.120800 2.963359
0.140142 -76.061600 2.804310
0.143221 -73.387700 2.910097
0.146300 -78.141400 2.924719
0.149379 -77.495900 2.967100
0.152458 -78.173700 2.717436
0.155537 -72.382700 3.024779
0.158617 -76.152700 3.041896
0.161696 -77.957800 3.003456
0.164775 -81.264000 3.045042
0.167854 -75.422600 2.904931
0.170933 -81.875200 2.805170
0.174012 -79.715700 2.987745
0.177092 -75.825900 2.956676
0.180171 -75.948200 2.902151
0.183250 -74.829100 2.853448
0.186329 -73.786000 3.064893
0.189408 -79.287900 2.904629
0.192488 -82.243800 2.811059
0.195567 -76.437400 2.735731
0.198646 -76.047300 2.767216
0.201725 -79.110300 2.937216
0.204804 -79.321600 3.135199
0.207883 -75.168500 3.003141
0.210962 -77.680400 2.985739
0.214042 -86.746700 3.058628
0.217121 -78.244900 3.152346
0.220200 -78.308200 2.831689
0.223279 -82.467300 3.155015
0.226358 -75.971100 2.958203
0.229437 -74.680200 3.085232
0.232517 -79.802800 3.023020
0.235596 -78.305900 3.020880
0.238675 -81.281300 2.886844
0.241754 -78.030000 2.987508
0.244833 -77.830900 3.036300
0.247913 -81.046000 3.088795
0.250992 -80.419500 3.003070
0.254071 -78.475200 3.106897
0.257150 -78.160000 3.210488
0.260229 -76.363200 2.996596
0.263308 -79.428800 2.914406
0.266387 -79.073100 2.920804
0.269467 -73.858900 3.060387
0.272546 -83.132000 3.018653
0.275625 -77.132200 2.998308
0.278704 -81.792000 3.057851
0.281783 -80.811700 3.344160
0.284863 -74.834700 3.138087
0.287942 -74.319100 3.179775
0.291021 -79.924600 3.004526
0.294100 -80.086000 3.244487
0.297179 -74.674100 3.048252
0.300258 -82.034300 3.431884
0.303337 -80.030400 3.294417
0.306417 -83.971200 2.980000
0.309496 -77.301700 3.069793
0.312575 -82.303000 3.178975
0.315654 -82.226800 3.299636
0.318733 -83.781600 3.239377
0.321813 -81.082300 3.008248
0.324892 -81.334100 3.228623
0.327971 -79.366800 3.021279
0.331050 -81.852900 3.134454
0.334129 -81.867100 2.971673
0.337208 -85.036700 3.185029
0.340288 -80.750200 3.195691
0.343367 -79.218700 3.093845
0.346446 -83.035600 3.073336
0.349525 -72.963800 3.080353
0.352604 -80.176300 3.236870
0.355683 -83.775900 3.236758
0.358762 -78.224700 3.199550
0.361842 -80.409300 3.132222
0.364921 -74.181500 3.302789
0.368000 -80.441900 3.283439
0.371079 -85.661300 3.124201
0.374158 -76.018900 3.144095
0.377238 -81.751500 3.062993
0.380317 -82.850200 3.460270
0.383396 -83.323900 3.112168
0.386475 -80.389900 3.327093
0.389554 -77.999700 3.133720
0.392633 -86.302200 3.264773
0.395713 -82.056000 3.280174
0.398792 -81.121600 3.177422
0.401871 -84.727400 3.244158
0.404950 -81.100200 3.168045
0.408029 -82.763200 3.177383
0.411108 -85.631000 3.479522
0.414187 -85.833200 3.384882
0.417267 -91.517900 3.288595
0.420346 -79.945500 3.359396
0.423425 -83.935800 3.330596
0.426504 -80.612000 3.193114
0.429583 -85.100600 3.321634
0.432663 -78.120300 3.186888
0.435742 -91.532500 3.307357
0.438821 -91.296300 3.332943
0.441900 -77.290300 3.164284
0.444979 -86.191200 3.053000
0.448058 -83.082800 3.182145
0.451138 -80.675000 3.398336
0.454217 -85.160000 3.352928
0.457296 -82.746900 3.231366
0.460375 -80.330900 3.260309
0.463454 -82.900200 3.357215
0.466533 -85.287500 3.311680
0.469612 -83.683400 3.181551
0.472692 -79.334100 3.271682
0.475771 -82.820400 3.274779
0.478850 -86.976500 3.476738
0.481929 -81.981700 3.208122
0.485008 -87.484800 3.217089
0.488088 -82.435600 3.288940
0.491167 -82.981900 3.420739
0.494246 -84.864700 3.549281
0.497325 -80.698500 3.277864
0.500404 -87.439500 3.440881
0.503483 -84.020000 3.359953
0.506563 -83.497100 3.223880
0.509642 -84.625500 3.360596
0.512721 -80.339600 3.653840
0.515800 -82.346700 3.305796
0.518879 -79.380500 3.277697
0.521958 -77.109700 3.463543
0.525038 -87.603900 3.433419
0.528117 -84.529800 3.244531
0.531196 -82.532300 3.492156
0.534275 -75.681400 3.227035
0.537354 -82.102300 3.411015
0.540433 -81.296600 3.262478
0.543512 -89.157300 3.421854
0.546592 -83.050100 3.421567
0.549671 -87.114100 3.348783
0.552750 -83.240900 3.381225
0.555829 -89.148000 3.583239
0.558908 -86.596500 3.418796
0.561987 -85.066300 3.382802
0.565067 -85.085800 3.434657
0.568146 -84.686600 3.327930
0.571225 -84.628500 3.424827
0.574304 -85.318200 3.372359
0.577383 -85.249500 3.306641
0.580462 -82.082200 3.364153
0.583542 -89.593600 3.259094
0.586621 -85.777000 3.482645
0.589700 -81.228100 3.393727
0.592779 -81.799200 3.465028
0.595858 -81.487100 3.594878
0.598938 -92.822900 3.305171
0.602017 -87.231300 3.325726
0.605096 -83.439600 3.597948
0.608175 -90.753400 3.409412
0.611254 -78.290900 3.665433
0.614333 -88.070400 3.670468
0.617413 -86.623000 3.695309
0.620492 -85.012500 3.536268
0.623571 -91.501600 3.295575
0.626650 -84.782700 3.733117
0.629729 -78.618400 3.365856
0.632808 -92.458200 3.628073
0.635888 -93.666600 3.538632
0.638967 -85.535900 3.305341
0.642046 -79.922800 3.331344
0.645125 -91.785800 3.464949
0.648204 -93.994700 3.392240
0.651283 -84.629700 3.635405
0.654362 -85.741700 3.444275
0.657442 -79.003800 3.650745
0.660521 -83.397600 3.399104
0.663600 -87.291700 3.453757
0.666679 -85.080200 3.435053
0.669758 -88.529200 3.629220
0.672837 -83.990700 3.535876
0.675917 -87.818100 3.526743
0.678996 -85.335700 3.615153
0.682075 -91.534700 3.563787
0.685154 -82.150600 3.630579
0.688233 -90.285100 3.511286
0.691312 -91.902200 3.649732
0.694392 -91.366400 3.757077
0.697471 -88.416100 3.786250
0.700550 -87.988000 3.565397
0.703629 -83.087600 3.726292
0.706708 -85.383200 3.637708
0.709788 -92.410900 3.688192
0.712867 -95.725200 3.624922
0.715946 -88.987300 3.363773
0.719025 -94.721600 3.726347
0.722104 -89.278800 3.708279
0.725183 -87.531700 3.650827
0.728263 -91.106800 3.315984
0.731342 -87.100100 3.551851
0.734421 -95.878100 3.658085
0.737500 -85.011000 3.598666
0.740579 -92.676900 3.536033
0.743658 -91.974200 3.746307
0.746738 -85.641000 3.585967
0.749817 -95.720700 3.586929
0.752896 -82.466900 3.766571
0.755975 -89.563700 3.496224
0.759054 -80.526500 3.574985
0.762133 -92.699900 3.778471
0.765212 -90.492200 3.618276
0.768292 -87.616900 3.627586
0.771371 -98.484000 3.786552
0.774450 -100.020800 3.682311
0.777529 -83.633800 3.602784
0.780608 -92.886000 3.818793
0.783687 -90.224600 3.745134
0.786767 -86.105000 3.865037
0.789846 -91.487900 3.835324
0.792925 -90.962200 3.683173
0.796004 -89.834800 3.722733
0.799083 -94.615400 3.774379
0.802163 -89.591600 3.811635
0.805242 -91.034200 3.890415
0.808321 -92.416200 3.776569
0.811400 -91.007400 3.861045
0.814479 -85.843400 3.709405
0.817558 -88.087100 3.606717
0.820638 -87.905500 3.684112
0.823717 -96.017300 3.893028
0.826796 -90.241400 3.683108
0.829875 -90.715100 3.765884
0.832954 -81.675800 3.849697
0.836033 -94.091300 3.848144
0.839113 -91.091600 3.441932
0.842192 -91.737300 3.687810
0.845271 -89.185300 3.911329
0.848350 -94.704500 3.779296
0.851429 -85.622000 4.073080
0.854508 -90.563600 3.703843
0.857587 -94.692400 3.696514
0.860667 -87.942100 3.848317
0.863746 -97.217800 3.950140
0.866825 -85.900200 4.257262
0.869904 -91.688400 3.766854
0.872983 -97.730600 3.858318
0.876062 -95.108000 4.148660
0.879142 -91.276700 3.738071
0.882221 -85.523400 3.764707
0.885300 -83.083400 3.759055
0.888379 -93.155700 3.867582
0.891458 -96.388700 3.848075
0.894537 -94.098800 3.819733
0.897617 -95.719600 3.890048
0.900696 -92.899300 3.868037
0.903775 -93.519500 3.980889
0.906854 -92.592800 3.925033
0.909933 -83.425600 3.902787
0.913013 -94.134500 3.942640
0.916092 -90.187400 4.038204
0.919171 -92.740900 4.230959
0.922250 -86.553700 4.052691
0.925329 -94.127300 4.057765
0.928408 -90.528300 4.052357
0.931488 -88.034500 4.069713
0.934567 -89.682700 4.095273
0.937646 -88.990200 3.860827
0.940725 -89.546200 3.843850
0.943804 -98.051300 3.933648
0.946883 -89.465400 3.680241
0.949963 -96.722200 4.061838
0.953042 -97.792300 3.940225
0.956121 -87.116900 3.793106
0.959200 -101.174400 3.777282
0.962279 -89.634800 4.145362
0.965358 -86.599700 4.206080
0.968437 -96.329700 3.875041
0.971517 -90.668100 3.811711
0.974596 -84.380500 4.064383
0.977675 -89.629600 4.066669
0.980754 -91.945900 3.800076
0.983833 -95.079800 4.147908
0.986912 -92.628400 3.878300
0.989992 -94.345700 3.904686
0.993071 -89.508900 4.116706
0.996150 -90.151500 4.045338
0.999229 -96.603700 3.938257
1.002308 -95.930600 3.828062
1.005388 -95.518300 4.062769
1.008467 -92.768300 3.883054
1.011546 -99.576100 4.005249
1.014625 -90.665000 3.928454
1.017704 -97.716700 3.897716
1.020783 -99.886600 3.787636
1.023862 -93.996600 4.162053
1.026942 -86.207300 4.161523
1.030021 -87.741100 3.772254
1.033100 -89.026300 3.878761
1.036179 -95.941000 4.104781
1.039258 -92.162500 3.984909
1.042337 -92.986800 3.934739
1.045417 -94.178300 4.092887
1.048496 -92.110700 4.253608
1.051575 -91.818400 4.131534
1.054654 -99.975500 4.241912
1.057733 -96.325800 4.343031
1.060812 -95.177200 4.023968
1.063892 -96.533900 4.255338
1.066971 -94.785700 4.150646
1.070050 -98.738100 4.359747
1.073129 -96.845300 4.027340
1.076208 -102.645800 4.323997
1.079287 -94.591300 4.167243
1.082367 -88.454700 4.387831
1.085446 -99.598000 4.175952
1.088525 -94.137900 4.221759
1.091604 -99.244900 4.380294
1.094683 -94.140900 3.888319
1.097762 -92.068200 4.190089
1.100842 -101.039300 4.156411
1.103921 -95.808300 4.060984
1.107000 -95.063400 4.571536
1.110079 -103.216200 4.006592
1.113158 -98.103400 4.244907
1.116237 -98.419900 3.963259
1.119317 -100.507600 3.948921
1.122396 -94.248600 4.318124
1.125475 -98.273800 4.195130
1.128554 -92.202900 4.295129
1.131633 -100.817800 4.210634
1.134713 -94.956800 4.032280
1.137792 -89.287500 4.367551
1.140871 -97.559400 4.278880
1.143950 -104.935800 4.279778
1.147029 -93.577000 4.042734
1.150108 -93.709500 4.080472
1.153188 -90.152000 4.141820
1.156267 -97.328200 4.247408
1.159346 -102.238000 4.314239
1.162425 -98.786400 4.141173
1.165504 -97.733800 4.104199
1.168583 -97.056400 4.152614
1.171663 -95.307700 4.360430
1.174742 -96.441400 4.047913
1.177821 -99.196900 4.267140
1.180900 -108.579200 4.503723
1.183979 -97.098000 4.386367
1.187058 -96.085500 4.095480
1.190138 -95.050200 4.311694
1.193217 -94.072000 4.025037
1.196296 -99.887400 4.101856
1.199375 -101.255900 4.113002
1.202454 -94.623400 4.416658
1.205533 -97.424500 4.361274
1.208613 -98.835800 4.112828
1.211692 -104.137900 4.250990
1.214771 -101.067200 4.244174
1.217850 -99.773500 4.476348
1.220929 -97.133700 3.953997
1.224008 -98.365500 4.405750
1.227088 -97.401100 4.049840
1.230167 -94.592900 4.218222
1.233246 -97.998400 4.465929
1.236325 -103.692900 4.583130
1.239404 -108.582600 4.349516
1.242483 -95.502400 4.501335
1.245562 -95.383500 4.283265
1.248642 -99.805800 4.293373
1.251721 -98.421000 4.470073
1.254800 -97.653300 3.995180
1.257879 -92.191700 4.270140
1.260958 -94.220300 4.533922
1.264037 -87.220000 4.064584
1.267117 -96.437100 4.258398
1.270196 -105.234600 4.313575
1.273275 -103.060500 4.457968
1.276354 -103.877600 4.314786
1.279433 -99.495600 4.218048
1.282512 -97.953200 4.169709
1.285592 -100.093800 4.262926
1.288671 -104.058900 4.527642
1.291750 -97.938200 4.327714
1.294829 -108.508000 4.212776
1.297908 -106.790200 4.213181
1.300987 -98.772600 4.348529
1.304067 -99.052700 4.575464
1.307146 -102.439000 4.095574
1.310225 -107.666900 4.164406
1.313304 -102.316100 4.330357
1.316383 -104.328600 4.298995
1.319462 -91.777800 4.136815
1.322542 -94.916400 4.412775
1.325621 -98.455000 4.611093
1.328700 -101.966900 4.411452
1.331779 -97.565700 3.950863
1.334858 -106.280200 4.342914
1.337938 -98.423300 4.142542
1.341017 -96.954400 4.308110
1.344096 -104.479600 4.291427
1.347175 -98.457800 5.069206
1.350254 -97.265900 4.218080
1.353333 -95.899700 4.701888
1.356413 -103.441300 4.294074
1.359492 -103.613500 4.202604
1.362571 -107.051800 4.561526
1.365650 -101.629000 4.309753
1.368729 -99.314800 4.290045
1.371808 -103.338000 4.259067
1.374888 -95.258500 4.735340
1.377967 -102.369800 4.568884
1.381046 -101.607900 4.464620
1.384125 -107.976100 4.702677
1.387204 -96.196100 4.527120
1.390283 -107.203000 4.279715
1.393363 -105.034400 4.856394
1.396442 -106.053600 4.537194
1.399521 -105.434900 4.383553
1.402600 -101.537800 4.292430
1.405679 -96.827100 4.562114
1.408758 -114.625800 4.533029
1.411838 -105.535700 4.240419
1.414917 -99.690500 4.451890
1.417996 -99.485700 4.983173
1.421075 -103.508300 4.451337
1.424154 -99.830100 4.706715
1.427233 -102.361600 4.438365
1.430313 -102.756600 4.584036
1.433392 -104.737300 4.441165
1.436471 -106.146000 4.294197
1.439550 -104.878400 4.583488
1.442629 -102.126400 4.539316
1.445708 -99.061100 4.616782
1.448787 -102.821600 4.505554
1.451867 -106.574200 4.667511
1.454946 -106.156700 4.862605
1.458025 -107.186600 4.304526
1.461104 -99.313300 4.694432
1.464183 -106.641500 4.962528
1.467262 -97.493400 4.593108
1.470342 -101.478300 4.512836
1.473421 -111.676000 4.665808
1.476500 -103.422400 4.332100
1.479579 -109.530400 4.397015
1.482658 -107.070700 4.316304
1.485737 -93.165700 4.356297
1.488817 -106.572600 4.425996
1.491896 -99.887000 4.798847
1.494975 -104.152500 4.893727
1.498054 -105.864700 4.521954
1.501133 -105.739700 4.412225
1.504212 -106.214300 4.578451
1.507292 -98.829000 4.550904
1.510371 -106.642700 4.195002
1.513450 -101.256700 4.348941
1.516529 -103.112100 4.613129
1.519608 -114.313400 4.542488
1.522687 -104.102500 4.942135
1.525767 -109.012400 4.668508
1.528846 -105.932800 4.820217
1.531925 -109.846700 4.755314
1.535004 -107.601800 4.532361
1.538083 -106.584700 4.644148
1.541162 -104.097200 4.525427
1.544242 -105.092400 4.772934
1.547321 -107.054400 4.332783
1.550400 -108.960000 4.791195
1.553479 -98.990000 4.147664
1.556558 -109.497500 4.812085
1.559638 -103.199500 4.419434
1.562717 -101.996900 4.454168
1.565796 -102.487000 4.745009
1.568875 -106.615900 4.136302
1.571954 -101.668400 4.720857
1.575033 -113.661300 4.628470
1.578113 -106.146600 4.766852
1.581192 -112.698300 4.388332
1.584271 -105.211100 4.678065
1.587350 -108.190200 4.734310
1.590429 -104.851600 4.895487
1.593508 -107.475100 4.647645
1.596588 -106.022300 4.724211
1.599667 -105.110400 4.616164
1.602746 -108.388500 4.678679
1.605825 -107.813200 4.543295
1.608904 -106.478700 4.620386
1.611983 -103.485800 4.403889
1.615063 -101.684300 4.617424
1.618142 -104.699200 4.620298
1.621221 -108.739300 4.587420
1.624300 -117.228700 4.865257
1.627379 -106.535400 4.662719
1.630458 -113.443300 4.869994
1.633538 -105.211000 4.773074
1.636617 -105.371000 4.878211
1.639696 -103.145000 4.742081
1.642775 -107.976100 4.910450
1.645854 -108.664200 4.864966
1.648933 -108.047700 4.575584
1.652013 -107.615300 4.904584
1.655092 -107.465900 4.848504
1.658171 -111.248800 4.797068
1.661250 -112.950600 5.063246
1.664329 -112.371000 5.464034
1.667408 -102.353500 4.512461
1.670487 -97.485600 4.852896
1.673567 -107.024900 4.748322
1.676646 -104.385400 4.737160
1.679725 -98.148000 5.120968
1.682804 -107.809500 4.612256
1.685883 -109.760000 4.618496
1.688962 -108.602100 4.564694
1.692042 -100.399700 4.814661
1.695121 -102.937900 4.906022
1.698200 -107.185800 4.785937
1.701279 -115.257900 5.115445
1.704358 -107.769700 4.620900
1.707437 -113.325400 4.517602
1.710517 -111.560000 4.778807
1.713596 -104.353700 5.086726
1.716675 -111.834700 4.485080
1.719754 -98.649100 4.749866
1.722833 -103.956000 4.845374
1.725912 -112.224100 4.414015
1.728992 -108.123200 4.902918
1.732071 -108.993400 4.385829
1.735150 -109.410700 4.630587
1.738229 -106.699900 4.573120
1.741308 -110.775500 4.891980
1.744387 -110.435400 4.975354
1.747467 -101.319500 5.124219
1.750546 -104.426400 4.573064
1.753625 -106.079300 4.562597
1.756704 -108.836000 5.016587
1.759783 -113.483200 4.854122
1.762862 -108.201100 4.948049
1.765942 -110.432000 4.994623
1.769021 -103.515800 4.865146
1.772100 -107.254700 4.638336
1.775179 -104.419800 5.057970
1.778258 -119.721100 4.842695
1.781338 -109.109500 4.978756
1.784417 -114.187700 4.988967
1.787496 -96.862500 4.616756
1.790575 -105.627300 4.917901
1.793654 -116.447200 4.766609
1.796733 -113.274200 5.047904
1.799813 -119.160300 4.930565
1.802892 -117.579800 4.676688
1.805971 -113.591800 4.676101
1.809050 -106.779900 4.948251
1.812129 -107.854800 4.568039
1.815208 -112.827000 4.365872
1.818288 -107.504700 5.010069
1.821367 -114.408700 4.853621
1.824446 -110.391700 5.328812
1.827525 -106.370000 4.787848
1.830604 -113.778800 4.661956
1.833683 -100.877500 4.774779
1.836763 -106.456100 4.841077
1.839842 -106.462500 4.961237
1.842921 -117.140900 4.849705
1.846000 -106.713500 4.866882
1.849079 -116.675200 4.747116
1.852158 -107.114300 4.693399
1.855238 -119.163200 4.741315
1.858317 -117.519900 4.841687
1.861396 -116.856700 4.611677
1.864475 -112.515200 4.742901
1.867554 -111.445300 5.221840
1.870633 -113.480900 4.771678
1.873712 -108.351900 4.997835
1.876792 -115.444100 4.986908
1.879871 -110.251000 5.191687
1.882950 -105.332400 5.003769
1.886029 -108.786700 4.575345
1.889108 -116.580500 4.935767
1.892187 -113.865200 4.931644
1.895267 -102.359000 5.059240
1.898346 -115.202200 5.018647
1.901425 -107.857100 4.552549
1.904504 -111.323900 4.887688
1.907583 -120.891100 4.523439
1.910662 -114.799800 4.892178
1.913742 -115.434400 4.688615
1.916821 -112.543100 4.943730
1.919900 -109.146700 5.096588
1.922979 -120.179400 4.889440
1.926058 -107.514600 4.786300
1.929137 -115.232500 4.790646
1.932217 -115.058500 5.657512
1.935296 -119.779600 4.948858
1.938375 -119.542000 4.904475
1.941454 -113.549100 4.683322
1.944533 -112.421500 4.719479
1.947612 -110.701000 5.236651
1.950692 -118.966200 4.538749
1.953771 -114.852700 4.977705
1.956850 -115.834600 5.018817
1.959929 -118.515500 5.219200
1.963008 -116.494200 4.647843
1.966087 -114.538900 5.176534
1.969167 -111.640400 5.173327
1.972246 -111.139100 4.548813
1.975325 -120.297300 4.868888
1.978404 -115.801800 4.752076
1.981483 -109.774400 4.806056
1.984563 -118.247600 4.874948
1.987642 -122.526600 4.976228
1.990721 -115.953400 4.989839
1.993800 -119.807300 4.531219
1.996879 -107.798600 4.764246
1.999958 -115.149700 4.925557
2.003038 -110.420800 4.903939
2.006117 -119.020200 5.046876
2.009196 -108.738300 4.894476
2.012275 -110.747500 4.832678
2.015354 -116.705100 4.766591
2.018433 -120.801700 4.964756
2.021513 -115.714900 4.889855
2.024592 -112.310200 4.662001
2.027671 -114.313400 4.428098
2.030750 -117.212700 5.101915
2.033829 -116.180700 4.758089
2.036908 -111.687500 5.021880
2.039988 -115.427100 4.904999
2.043067 -126.962100 5.317282
2.046146 -119.974300 5.392638
2.049225 -117.993400 4.930585
2.052304 -114.786200 4.720298
2.055383 -114.241600 4.790074
2.058463 -125.043300 5.332839
2.061542 -116.341700 4.939818
2.064621 -116.410200 4.892615
2.067700 -116.806300 4.973123
2.070779 -120.272500 4.898491
2.073858 -114.213900 5.011347
2.076938 -117.257700 5.019699
2.080017 -107.111400 5.237343
2.083096 -111.840300 4.646214
2.086175 -115.394400 5.612564
2.089254 -116.836100 5.118768
2.092333 -110.005900 5.322191
2.095413 -117.916900 4.775389
2.098492 -116.801900 4.972157
2.101571 -120.505400 4.592435
2.104650 -113.820300 5.052963
2.107729 -125.946100 5.093754
2.110808 -120.091100 4.806661
2.113888 -115.593700 4.975583
2.116967 -127.328100 5.014000
2.120046 -112.124000 4.929067
2.123125 -122.093300 4.772649
2.126204 -125.168600 5.098438
2.129283 -118.803800 4.727081
2.132363 -109.122900 5.068778
2.135442 -107.209200 4.958544
2.138521 -121.914100 5.124175
2.141600 -124.167500 5.195803
2.144679 -116.094500 4.722048
2.147758 -123.576800 5.179034
2.150838 -120.965900 4.918205
2.153917 -123.327500 4.935344
2.156996 -108.662300 5.209499
2.160075 -117.834600 4.941702
2.163154 -108.951000 4.702865
2.166233 -120.087500 4.864661
2.169313 -119.550700 4.971182
2.172392 -115.929600 4.930609
2.175471 -124.073500 5.441336
2.178550 -111.314700 5.210447
2.181629 -122.163500 4.944045
2.184708 -118.997500 4.739213
2.187788 -119.528500 5.121611
2.190867 -113.197900 5.421518
2.193946 -128.504500 5.335156
2.197025 -118.544400 4.718456
2.200104 -118.434100 4.960236
2.203183 -112.637100 5.128069
2.206262 -121.327200 5.327187
2.209342 -126.391600 4.949176
2.212421 -120.018600 5.704007
2.215500 -124.759100 5.126300
2.218579 -118.315000 4.839983
2.221658 -114.671600 4.848734
2.224737 -118.901400 4.774140
2.227817 -122.286400 5.187346
2.230896 -124.369500 5.083409
2.233975 -106.358300 5.035324
2.237054 -114.485400 5.316389
2.240133 -121.970900 5.117081
2.243212 -114.379800 5.487244
2.246292 -121.659200 5.114681
2.249371 -122.739700 4.720646
2.252450 -116.946600 5.296128
2.255529 -123.174700 5.380475
2.258608 -113.829700 4.933028
2.261687 -115.725900 5.315850
2.264767 -124.626300 5.293373
2.267846 -128.083500 4.778154
2.270925 -125.784300 4.662182
2.274004 -123.708200 4.911324
2.277083 -116.422100 4.857954
2.280162 -123.010300 5.180049
2.283242 -114.575300 5.203982
2.286321 -117.400600 4.920272
2.289400 -116.886800 5.007620
2.292479 -122.962200 5.434173
2.295558 -125.661100 5.149810
2.298637 -128.382700 5.102992
2.301717 -116.871000 5.338895
2.304796 -127.995100 4.912764
2.307875 -128.315100 4.887349
2.310954 -115.447600 5.454320
2.314033 -132.878300 5.477039
2.317112 -118.648500 5.335433
2.320192 -111.807900 4.978708
2.323271 -122.607300 5.215474
2.326350 -125.115300 4.849319
2.329429 -125.688700 5.725211
2.332508 -129.713700 5.628902
2.335587 -131.780400 5.440612
2.338667 -121.034700 5.402889
2.341746 -118.294400 5.312464
2.344825 -127.802100 5.100569
2.347904 -126.333800 5.224464
2.350983 -120.918400 4.904575
2.354062 -123.949700 5.213819
2.357142 -127.133200 5.249637
2.360221 -114.520200 5.422093
2.363300 -123.408100 5.204094
2.366379 -119.729400 5.126551
2.369458 -121.152200 5.132091
2.372537 -125.635000 5.120303
2.375617 -122.309300 5.480404
2.378696 -124.554100 5.219266
2.381775 -128.906000 4.782651
2.384854 -111.238000 5.054580
2.387933 -113.358200 5.184009
2.391012 -122.308900 5.535605
2.394092 -134.440400 5.741592
2.397171 -116.409100 5.174421
2.400250 -122.034100 4.675462
2.403329 -127.121300 4.748508
2.406408 -122.384000 5.404584
2.409488 -121.631000 5.809668
2.412567 -125.235800 4.983520
2.415646 -124.433000 5.275891
2.418725 -130.282600 4.853883
2.421804 -135.598800 5.109915
2.424883 -125.289400 5.063126
2.427963 -124.167700 5.351609
2.431042 -127.270400 5.528940
2.434121 -117.164300 4.700450
2.437200 -122.736000 6.268976
2.440279 -121.313000 5.063957
2.443358 -122.758500 5.343728
2.446438 -119.979100 4.825393
2.449517 -119.365600 5.151546
2.452596 -127.399500 5.173418
2.455675 -126.036100 5.637935
2.458754 -126.987100 5.739843
2.461833 -125.944000 5.192502
2.464913 -117.784500 5.425163
2.467992 -128.444400 5.131234
2.471071 -122.821500 5.827732
2.474150 -130.554100 4.756786
2.477229 -137.770100 5.380777
2.480308 -133.357900 5.137570
2.483388 -131.772900 4.816511
2.486467 -135.186300 5.061486
2.489546 -126.133000 4.759250
2.492625 -125.559900 5.180149
2.495704 -124.606900 5.625557
2.498783 -126.237400 4.712584
2.501863 -131.785800 4.999801
2.504942 -133.378500 5.214756
2.508021 -131.387300 5.793245
2.511100 -132.543200 5.237418
2.514179 -123.162100 5.584799
2.517258 -138.503100 5.035779
2.520338 -133.847500 5.253129
2.523417 -134.627900 5.310679
2.526496 -130.127300 5.081979
2.529575 -128.977300 4.941304
2.532654 -129.763800 5.137532
2.535733 -129.900800 5.590683
2.538813 -126.778700 5.340132
2.541892 -126.793200 5.063449
2.544971 -121.932600 5.606384
2.548050 -131.348500 5.952119
2.551129 -133.666400 5.425715
2.554208 -123.628600 5.016414
2.557288 -134.908200 5.351660
2.560367 -130.150200 5.528926
2.563446 -128.158100 5.761597
2.566525 -129.676800 5.440617
2.569604 -128.628100 5.074775
2.572683 -131.736300 5.287510
2.575763 -141.476200 5.742848
2.578842 -136.527500 5.571470
2.581921 -133.176400 4.934125
2.585000 -126.023600 5.775704
2.588079 -144.219500 5.241107
2.591158 -130.273000 5.607493
2.594238 -128.978000 5.181420
2.597317 -123.231600 5.205276
2.600396 -137.542500 5.064484
2.603475 -134.501800 4.874721
2.606554 -119.492000 5.549868
2.609633 -128.141000 5.174444
2.612713 -126.207100 5.129334
2.615792 -130.827000 5.362723
2.618871 -126.824600 4.897011
2.621950 -135.862400 5.304956
2.625029 -134.139000 4.939823
2.628108 -132.597400 5.673620
2.631187 -135.807400 5.458513
2.634267 -141.561200 5.546391
2.637346 -134.255700 5.131093
2.640425 -134.285900 5.456679
2.643504 -135.438800 5.565067
2.646583 -128.697800 4.713035
2.649662 -131.140400 5.854194
2.652742 -133.989000 5.731608
2.655821 -131.639800 5.392110
2.658900 -138.131300 4.981935
2.661979 -135.366900 5.569239
2.665058 -140.386300 4.831443
2.668137 -137.540800 5.497750
2.671217 -136.697300 5.363183
2.674296 -120.967500 5.405912
2.677375 -139.573200 5.137893
2.680454 -126.218800 5.164797
2.683533 -128.067800 5.375306
2.686612 -125.946700 4.925965
2.689692 -139.292100 6.121121
2.692771 -140.355800 5.556919
2.695850 -128.841700 5.172303
2.698929 -135.937600 5.423377
2.702008 -126.555500 5.527395
2.705087 -135.788600 5.592161
2.708167 -132.071900 5.063594
2.711246 -138.217700 5.623564
2.714325 -140.449400 5.124396
2.717404 -140.092700 5.860586
2.720483 -141.040700 5.213849
2.723562 -140.300000 5.734595
2.726642 -144.866500 5.567804
2.729721 -128.718600 5.346219
2.732800 -135.720100 5.234626
2.735879 -130.381700 5.729153
2.738958 -143.837700 5.493359
2.742037 -145.442500 5.606507
2.745117 -142.200400 5.102598
2.748196 -136.889700 5.349501
2.751275 -134.054500 5.070286
2.754354 -144.837600 5.614273
2.757433 -143.378600 5.653614
2.760512 -142.516000 5.969898
2.763592 -132.799400 5.192331
2.766671 -141.951000 4.936118
2.769750 -133.366500 5.196506
2.772829 -146.125300 5.570127
2.775908 -139.571900 5.416208
2.778987 -134.339800 5.572890
2.782067 -141.684000 5.749940
2.785146 -140.921800 5.797360
2.788225 -140.413700 5.772783
2.791304 -149.590100 5.143914
2.794383 -135.863200 5.287849
2.797462 -141.075500 5.341352
2.800542 -144.646500 5.372493
2.803621 -139.623100 6.033506
2.806700 -133.303400 5.829625
2.809779 -147.198000 4.963451
2.812858 -143.238600 5.793097
2.815937 -152.654200 5.514653
2.819017 -147.374800 5.191041
2.822096 -138.051900 6.229754
2.825175 -152.358700 5.992295
2.828254 -148.314300 5.069327
2.831333 -145.405700 5.259888
2.834413 -142.901700 5.399846
2.837492 -144.004700 5.314496
2.840571 -136.088800 5.270423
2.843650 -143.622600 5.718188
2.846729 -156.747500 5.560715
2.849808 -150.337200 5.385863
2.852888 -131.390300 5.240684
2.855967 -135.641000 5.865192
2.859046 -140.333100 5.733086
2.862125 -149.921000 5.654405
2.865204 -148.173300 4.907427
2.868283 -137.085700 5.497462
2.871363 -146.009500 5.495399
2.874442 -157.506900 5.605147
2.877521 -148.957400 6.200270
2.880600 -145.964200 5.764804
2.883679 -137.450900 5.492379
2.886758 -143.805200 5.373707
2.889838 -146.977200 5.635390
2.892917 -156.662200 5.783790
2.895996 -148.404100 5.888367
2.899075 -134.740200 5.209982
2.902154 -148.671800 5.264735
2.905233 -143.873800 5.815764
2.908313 -142.964000 5.565993
2.911392 -140.799800 6.026943
2.914471 -157.376100 6.025249
2.917550 -153.227200 5.441777
2.920629 -146.001900 5.930853
2.923708 -149.355800 5.566276
2.926788 -152.183300 5.567321
2.929867 -142.865700 5.456077
2.932946 -153.736700 5.205998
2.936025 -154.066300 5.738932
2.939104 -147.700500 5.855894
2.942183 -155.719900 5.634297
2.945263 -149.761000 5.424938
2.948342 -148.743900 6.482858
2.951421 -149.904300 5.977203
2.954500 -145.278500 6.437310
2.957579 -146.129000 5.207344
2.960658 -150.093000 5.836110
2.963738 -141.763900 5.087046
2.966817 -161.475300 5.454111
2.969896 -140.976400 5.388759
2.972975 -146.524700 6.350653
2.976054 -149.432600 5.976485
2.979133 -156.473200 5.523707
2.982213 -153.734400 5.557833
2.985292 -157.570600 5.211193
2.988371 -150.358900 5.614223
2.991450 -149.515500 5.733075
2.994529 -150.996800 5.148642
2.997608 -153.226100 6.204572
3.000688 -155.825400 5.616511
3.003767 -156.916600 5.677540
3.006846 -165.678000 6.251155
3.009925 -148.609400 6.056924
3.013004 -148.706900 5.510161
3.016083 -156.644500 5.476157
3.019163 -155.338400 5.967365
3.022242 -151.497800 5.787135
3.025321 -151.115500 5.203012
3.028400 -159.699300 5.331267
3.031479 -148.907900 5.435813
3.034558 -154.299600 5.524896
3.037638 -166.387700 5.904984
3.040717 -169.400500 5.216107
3.043796 -161.124600 5.097701
3.046875 -157.274600 5.316316
3.049954 -155.462700 5.841820
3.053033 -151.782100 5.235125
3.056112 -158.541200 5.878632
3.059192 -161.047900 5.521086
3.062271 -165.794600 5.552793
3.065350 -152.567600 5.630734
3.068429 -148.924500 6.258812
3.071508 -149.308300 5.603245
3.074587 -158.520700 5.417701
3.077667 -145.338000 6.163709
3.080746 -163.936500 5.422796
3.083825 -166.532500 5.773483
3.086904 -164.353500 4.956658
3.089983 -150.942400 5.390509
3.093062 -159.198600 5.734939
3.096142 -154.994700 5.533056
3.099221 -155.332700 6.344505
3.102300 -170.446700 5.895197
3.105379 -154.492600 5.860422
3.108458 -159.120500 6.039072
3.111537 -156.188400 5.368882
3.114617 -157.273100 5.235462
3.117696 -158.161200 5.556432
3.120775 -163.507400 5.693965
3.123854 -156.018200 6.045522
3.126933 -161.049100 6.405311
3.130012 -161.181200 6.894804
3.133092 -168.362900 5.307483
3.136171 -166.510200 6.230126
3.139250 -164.812900 5.535951
3.142329 -165.933700 5.572549
3.145408 -164.534100 5.933945
3.148487 -172.638700 5.328773
3.151567 -157.605000 5.350035
3.154646 -167.506500 6.349468
3.157725 -164.812600 5.794852
3.160804 -160.373300 6.365628
3.163883 -169.060200 6.232290
3.166962 -176.614900 5.888032
3.170042 -172.477100 5.497839
3.173121 -160.727200 5.852052
3.176200 -168.719300 5.563982
3.179279 -168.390400 5.673577
3.182358 -166.377900 6.275097
3.185437 -164.950800 5.926433
3.188517 -172.263100 5.070622
3.191596 -175.759100 5.968300
3.194675 -150.918700 5.553896
3.197754 -174.706900 5.645677
3.200833 -175.348300 5.916281
3.203912 -164.150000 6.287436
3.206992 -165.011800 5.494453
3.210071 -178.431300 5.982569
3.213150 -157.488500 6.371765
3.216229 -163.618000 5.931849
3.219308 -166.020300 5.602735
3.222387 177.751600 5.760965
3.225467 -172.297600 5.959755
3.228546 -177.712300 6.565638
3.231625 -165.713200 5.984172
3.234704 -169.751600 6.220794
3.237783 -159.084000 5.614272
3.240862 -165.830800 4.978586
3.243942 176.850600 5.836167
3.247021 -165.084000 5.972251
3.250100 -166.923900 5.443456
3.253179 -168.671400 6.427889
3.256258 -171.734600 5.377839
3.259337 -172.464100 5.744090
3.262417 -169.618200 6.029380
3.265496 179.659100 6.113124
3.268575 -174.986400 5.669860
3.271654 171.342000 6.058799
3.274733 -176.781500 5.951518
3.277813 -166.917700 5.959377
3.280892 -164.805200 5.805122
3.283971 -171.112500 5.422635
3.287050 175.371600 6.076800
3.290129 -173.955900 6.374329
3.293208 -178.062300 5.277450
3.296288 -179.074200 5.962908
3.299367 -173.509600 5.550500
3.302446 166.368000 6.205296
3.305525 -170.561500 5.756184
3.308604 -171.472900 5.083139
3.311683 -166.234300 5.537151
3.314763 173.624800 5.599889
3.317842 -170.629400 5.783023
3.320921 -171.613600 5.770868
3.324000 176.814600 6.676200
3.327079 -176.030600 5.457514
3.330158 -175.824800 5.477246
3.333238 174.849000 5.902998
3.336317 177.391700 5.921379
3.339396 179.740100 5.229738
3.342475 -174.652700 5.446628
3.345554 170.622000 6.572113
3.348633 -179.946000 5.740431
3.351713 178.553400 6.120382
3.354792 177.260200 6.638561
3.357871 -175.747800 5.951334
3.360950 177.139700 5.693298
3.364029 169.517000 6.887413
3.367108 -170.836700 6.665119
3.370188 175.345300 5.543608
3.373267 174.668300 6.557040
3.376346 178.117700 6.147073
3.379425 177.874500 5.385077
3.382504 -174.740900 6.196253
3.385583 173.978900 5.820597
3.388663 179.722400 5.528274
3.391742 172.697700 6.153738
3.394821 178.198000 6.205937
3.397900 170.111300 6.171191
3.400979 168.367300 5.557513
3.404058 175.015300 5.473555
3.407138 174.217000 7.089329
3.410217 165.585600 5.249902
3.413296 169.233600 6.195087
3.416375 169.453300 5.591157
3.419454 160.788000 5.624240
3.422533 -173.715300 5.701278
3.425613 172.122800 6.541874
3.428692 177.096900 5.594892
3.431771 178.469000 6.939614
3.434850 161.429000 5.992090
3.437929 171.946000 6.331316
3.441008 168.727200 6.080747
3.444088 167.967700 5.832054
3.447167 172.406500 6.744912
3.450246 165.209700 5.912237
3.453325 169.388800 5.943854
3.456404 160.140500 5.674992
3.459483 168.344100 6.172337
3.462563 164.732800 5.595163
3.465642 171.400900 6.172614
3.468721 168.074700 5.963813
3.471800 159.394500 5.701743
3.474879 158.093400 6.073638
3.477958 163.233300 5.990639
3.481037 165.215100 5.312934
3.484117 166.011600 5.783242
3.487196 162.619700 6.399924
3.490275 160.964300 5.716452
3.493354 157.132300 6.196957
3.496433 160.839200 5.710055
3.499512 156.908500 5.911617
3.502592 146.436400 6.118851
3.505671 162.666100 6.022864
3.508750 160.803800 6.432130
3.511829 159.269300 6.117955
3.514908 163.235900 5.380755
3.517987 148.382200 5.657485
3.521067 164.767900 5.594343
3.524146 159.615600 5.861894
3.527225 154.134100 5.571872
3.530304 153.941000 5.480220
3.533383 153.299100 5.972894
3.536462 149.630200 6.122278
3.539542 151.853800 5.923742
3.542621 156.557200 6.263709
3.545700 150.023300 5.868931
3.548779 152.965200 5.304523
3.551858 151.253800 5.245112
3.554937 163.252600 6.152467
3.558017 156.676700 6.317759
3.561096 150.135600 6.088712
3.564175 153.581100 5.340421
3.567254 150.209400 5.802304
3.570333 149.773900 5.758332
3.573412 150.915400 6.693121
3.576492 150.596700 5.766373
3.579571 150.628000 6.022413
3.582650 150.952300 5.918505
3.585729 154.665000 5.494553
3.588808 148.881900 6.145436
3.591887 149.876000 5.674317
3.594967 160.326400 5.941311
3.598046 146.256200 5.785164
3.601125 144.729700 5.724596
3.604204 141.648500 5.617513
3.607283 148.893000 5.590134
3.610362 146.302100 6.459324
3.613442 137.161300 6.067289
3.616521 137.541700 5.697153
3.619600 140.531200 6.466426
3.622679 149.676000 6.056979
3.625758 145.698700 6.119055
3.628837 146.274100 5.361410
3.631917 135.256400 6.338856
3.634996 143.648800 5.872663
3.638075 149.535000 5.329999
3.641154 139.162700 5.380617
3.644233 148.539300 6.754139
3.647312 145.878100 5.631941
3.650392 146.337900 6.019154
3.653471 147.781400 6.538566
3.656550 146.144500 5.203524
3.659629 132.011200 5.719054
3.662708 132.920900 6.088339
3.665787 132.121000 5.612900
3.668867 148.919000 5.940730
3.671946 139.171000 5.787866
3.675025 136.336500 5.448089
3.678104 133.165500 5.935375
3.681183 126.073000 5.810492
3.684262 129.362800 6.276862
3.687342 122.768400 5.722985
3.690421 139.259800 5.877207
3.693500 135.717800 6.169129
3.696579 137.560200 5.205764
3.699658 126.943200 6.442325
3.702738 131.499000 5.820234
3.705817 130.895900 5.552797
3.708896 131.409500 5.658738
3.711975 143.365100 5.785298
3.715054 137.321600 5.956915
3.718133 132.879700 5.738731
3.721213 132.427300 5.506865
3.724292 132.397600 6.573302
3.727371 131.523800 5.832080
3.730450 126.450000 5.155617
3.733529 121.442800 5.715993
3.736608 129.927100 5.929704
3.739688 135.562500 5.912906
3.742767 121.909100 5.812751
3.745846 122.587400 5.036402
3.748925 119.743300 5.014924
3.752004 127.456200 5.089758
3.755083 124.560800 5.890678
3.758163 127.667300 5.928890
3.761242 122.970700 5.084065
3.764321 123.132100 5.411077
3.767400 119.704100 5.921322
3.770479 125.159600 5.440631
3.773558 116.460600 5.030876
3.776638 121.589200 4.886695
3.779717 128.417200 5.303252
3.782796 127.426800 5.854809
3.785875 120.622900 5.615611
3.788954 113.241500 5.494880
3.792033 116.178200 5.622680
3.795113 120.760900 5.317789
3.798192 123.298900 6.281460
3.801271 121.558200 5.829173
3.804350 120.061800 5.314591
3.807429 128.417700 5.412367
3.810508 120.630700 5.163690
3.813588 118.237800 4.857706
3.816667 112.379200 5.912640
3.819746 112.555100 5.321324
3.822825 116.399600 4.838700
3.825904 110.317300 5.907812
3.828983 107.115700 5.081564
3.832063 104.707600 5.308111
3.835142 117.229700 5.173733
3.838221 114.446600 5.699669
3.841300 110.199200 4.876238
3.844379 113.408200 5.777038
3.847458 111.405400 6.063975
3.850538 118.074000 5.255804
3.853617 109.220500 5.439874
3.856696 113.959700 5.289655
3.859775 113.958200 5.879909
3.862854 114.393400 5.071275
3.865933 112.449900 5.475421
3.869013 112.812700 5.993629
3.872092 105.168300 4.839734
3.875171 116.753500 5.444363
3.878250 113.668800 5.075973
3.881329 102.415400 5.051831
3.884408 106.524700 5.417291
3.887488 103.346000 4.852978
3.890567 100.665800 5.048400
3.893646 95.688400 5.367382
